Height (nm):	100.000000
Position (nm)	Voltage (mV)
-12750.000000	3.583564
-12724.500000	3.611442
-12699.000000	3.609303
-12673.500000	3.618684
-12648.000000	3.628731
-12622.500000	3.613696
-12597.000000	3.601519
-12571.500000	3.587376
-12546.000000	3.608704
-12520.500000	3.580489
-12495.000000	3.562965
-12469.500000	3.589680
-12444.000000	3.604353
-12418.500000	3.631845
-12393.000000	3.598471
-12367.500000	3.580016
-12342.000000	3.568646
-12316.500000	3.602382
-12291.000000	3.620353
-12265.500000	3.605993
-12240.000000	3.587095
-12214.500000	3.600664
-12189.000000	3.602301
-12163.500000	3.592360
-12138.000000	3.620522
-12112.500000	3.607887
-12087.000000	3.595640
-12061.500000	3.594395
-12036.000000	3.590401
-12010.500000	3.604652
-11985.000000	3.572529
-11959.500000	3.608158
-11934.000000	3.591940
-11908.500000	3.596150
-11883.000000	3.621664
-11857.500000	3.616213
-11832.000000	3.588437
-11806.500000	3.608957
-11781.000000	3.593188
-11755.500000	3.640463
-11730.000000	3.592098
-11704.500000	3.609757
-11679.000000	3.566965
-11653.500000	3.604319
-11628.000000	3.578774
-11602.500000	3.580993
-11577.000000	3.591957
-11551.500000	3.601334
-11526.000000	3.627836
-11500.500000	3.610707
-11475.000000	3.566979
-11449.500000	3.597428
-11424.000000	3.580482
-11398.500000	3.585885
-11373.000000	3.564480
-11347.500000	3.591434
-11322.000000	3.613151
-11296.500000	3.606576
-11271.000000	3.549866
-11245.500000	3.627023
-11220.000000	3.605133
-11194.500000	3.636865
-11169.000000	3.613656
-11143.500000	3.601697
-11118.000000	3.590236
-11092.500000	3.581647
-11067.000000	3.575130
-11041.500000	3.584370
-11016.000000	3.604183
-10990.500000	3.588696
-10965.000000	3.572057
-10939.500000	3.574624
-10914.000000	3.603985
-10888.500000	3.609748
-10863.000000	3.601568
-10837.500000	3.609745
-10812.000000	3.620928
-10786.500000	3.592774
-10761.000000	3.590627
-10735.500000	3.644392
-10710.000000	3.609459
-10684.500000	3.590978
-10659.000000	3.617737
-10633.500000	3.614561
-10608.000000	3.601028
-10582.500000	3.604404
-10557.000000	3.611383
-10531.500000	3.600323
-10506.000000	3.592299
-10480.500000	3.603652
-10455.000000	3.634079
-10429.500000	3.632195
-10404.000000	3.593596
-10378.500000	3.639787
-10353.000000	3.649024
-10327.500000	3.617134
-10302.000000	3.652711
-10276.500000	3.605562
-10251.000000	3.574306
-10225.500000	3.580492
-10200.000000	3.587829
-10174.500000	3.614954
-10149.000000	3.559972
-10123.500000	3.592233
-10098.000000	3.592519
-10072.500000	3.648452
-10047.000000	3.582896
-10021.500000	3.568088
-9996.000000	3.605528
-9970.500000	3.586859
-9945.000000	3.633599
-9919.500000	3.614808
-9894.000000	3.588475
-9868.500000	3.581058
-9843.000000	3.630091
-9817.500000	3.572987
-9792.000000	3.629875
-9766.500000	3.630249
-9741.000000	3.576271
-9715.500000	3.609345
-9690.000000	3.604837
-9664.500000	3.629672
-9639.000000	3.567827
-9613.500000	3.630285
-9588.000000	3.596216
-9562.500000	3.599084
-9537.000000	3.570530
-9511.500000	3.595817
-9486.000000	3.600423
-9460.500000	3.602300
-9435.000000	3.569937
-9409.500000	3.603529
-9384.000000	3.606060
-9358.500000	3.565602
-9333.000000	3.610807
-9307.500000	3.577642
-9282.000000	3.600224
-9256.500000	3.594616
-9231.000000	3.610521
-9205.500000	3.606105
-9180.000000	3.615711
-9154.500000	3.610856
-9129.000000	3.633654
-9103.500000	3.581492
-9078.000000	3.594603
-9052.500000	3.598081
-9027.000000	3.605280
-9001.500000	3.633665
-8976.000000	3.606936
-8950.500000	3.596454
-8925.000000	3.586547
-8899.500000	3.539845
-8874.000000	3.555693
-8848.500000	3.595030
-8823.000000	3.594873
-8797.500000	3.573342
-8772.000000	3.594269
-8746.500000	3.608261
-8721.000000	3.593536
-8695.500000	3.580534
-8670.000000	3.611891
-8644.500000	3.610706
-8619.000000	3.617660
-8593.500000	3.570898
-8568.000000	3.609173
-8542.500000	3.599490
-8517.000000	3.650712
-8491.500000	3.615344
-8466.000000	3.601583
-8440.500000	3.587832
-8415.000000	3.608505
-8389.500000	3.609415
-8364.000000	3.613109
-8338.500000	3.593717
-8313.000000	3.633083
-8287.500000	3.622223
-8262.000000	3.590877
-8236.500000	3.602611
-8211.000000	3.636102
-8185.500000	3.607094
-8160.000000	3.597319
-8134.500000	3.595697
-8109.000000	3.612119
-8083.500000	3.602587
-8058.000000	3.619871
-8032.500000	3.571992
-8007.000000	3.610642
-7981.500000	3.600583
-7956.000000	3.620362
-7930.500000	3.575271
-7905.000000	3.601962
-7879.500000	3.614480
-7854.000000	3.617510
-7828.500000	3.573091
-7803.000000	3.618886
-7777.500000	3.618501
-7752.000000	3.582811
-7726.500000	3.640475
-7701.000000	3.592936
-7675.500000	3.562042
-7650.000000	3.565336
-7624.500000	3.624132
-7599.000000	3.583707
-7573.500000	3.603822
-7548.000000	3.616558
-7522.500000	3.628956
-7497.000000	3.626805
-7471.500000	3.624452
-7446.000000	3.623167
-7420.500000	3.572704
-7395.000000	3.622386
-7369.500000	3.544828
-7344.000000	3.614994
-7318.500000	3.634482
-7293.000000	3.618071
-7267.500000	3.617124
-7242.000000	3.623042
-7216.500000	3.606812
-7191.000000	3.596491
-7165.500000	3.617133
-7140.000000	3.615291
-7114.500000	3.586762
-7089.000000	3.627033
-7063.500000	3.593907
-7038.000000	3.619442
-7012.500000	3.615057
-6987.000000	3.621416
-6961.500000	3.567477
-6936.000000	3.580329
-6910.500000	3.602533
-6885.000000	3.601317
-6859.500000	3.621692
-6834.000000	3.624320
-6808.500000	3.619332
-6783.000000	3.592630
-6757.500000	3.558597
-6732.000000	3.607652
-6706.500000	3.579879
-6681.000000	3.620639
-6655.500000	3.613003
-6630.000000	3.557725
-6604.500000	3.562972
-6579.000000	3.607512
-6553.500000	3.618616
-6528.000000	3.596785
-6502.500000	3.607620
-6477.000000	3.606715
-6451.500000	3.618700
-6426.000000	3.573429
-6400.500000	3.604471
-6375.000000	3.612653
-6349.500000	3.578761
-6324.000000	3.624704
-6298.500000	3.595671
-6273.000000	3.563210
-6247.500000	3.588472
-6222.000000	3.628800
-6196.500000	3.592027
-6171.000000	3.575945
-6145.500000	3.612686
-6120.000000	3.607638
-6094.500000	3.586939
-6069.000000	3.613289
-6043.500000	3.584765
-6018.000000	3.605165
-5992.500000	3.578555
-5967.000000	3.614798
-5941.500000	3.621942
-5916.000000	3.611784
-5890.500000	3.570557
-5865.000000	3.632479
-5839.500000	3.584555
-5814.000000	3.672610
-5788.500000	3.601230
-5763.000000	3.603833
-5737.500000	3.561316
-5712.000000	3.585413
-5686.500000	3.571303
-5661.000000	3.584334
-5635.500000	3.560126
-5610.000000	3.633378
-5584.500000	3.601814
-5559.000000	3.590371
-5533.500000	3.653625
-5508.000000	3.578122
-5482.500000	3.640448
-5457.000000	3.595428
-5431.500000	3.626143
-5406.000000	3.608714
-5380.500000	3.608116
-5355.000000	3.580512
-5329.500000	3.575671
-5304.000000	3.623623
-5278.500000	3.596428
-5253.000000	3.613362
-5227.500000	3.609991
-5202.000000	3.577476
-5176.500000	3.594257
-5151.000000	3.638763
-5125.500000	3.602149
-5100.000000	3.613855
-5074.500000	3.588755
-5049.000000	3.605066
-5023.500000	3.593789
-4998.000000	3.582597
-4972.500000	3.594598
-4947.000000	3.606659
-4921.500000	3.613941
-4896.000000	3.599790
-4870.500000	3.561010
-4845.000000	3.587772
-4819.500000	3.629250
-4794.000000	3.601801
-4768.500000	3.635905
-4743.000000	3.580228
-4717.500000	3.626884
-4692.000000	3.587084
-4666.500000	3.607025
-4641.000000	3.618788
-4615.500000	3.607263
-4590.000000	3.577277
-4564.500000	3.580210
-4539.000000	3.617929
-4513.500000	3.613016
-4488.000000	3.627063
-4462.500000	3.592628
-4437.000000	3.575333
-4411.500000	3.583760
-4386.000000	3.582479
-4360.500000	3.590201
-4335.000000	3.530243
-4309.500000	3.477377
-4284.000000	3.372513
-4258.500000	3.185003
-4233.000000	2.952414
-4207.500000	2.697014
-4182.000000	2.397776
-4156.500000	2.184685
-4131.000000	2.012020
-4105.500000	1.853479
-4080.000000	1.774245
-4054.500000	1.701514
-4029.000000	1.627514
-4003.500000	1.608555
-3978.000000	1.577232
-3952.500000	1.555073
-3927.000000	1.544441
-3901.500000	1.527131
-3876.000000	1.522789
-3850.500000	1.525446
-3825.000000	1.523973
-3799.500000	1.536884
-3774.000000	1.545058
-3748.500000	1.557153
-3723.000000	1.548040
-3697.500000	1.551044
-3672.000000	1.558901
-3646.500000	1.561941
-3621.000000	1.570547
-3595.500000	1.575007
-3570.000000	1.585095
-3544.500000	1.569627
-3519.000000	1.566684
-3493.500000	1.570577
-3468.000000	1.573889
-3442.500000	1.560384
-3417.000000	1.568518
-3391.500000	1.580525
-3366.000000	1.568759
-3340.500000	1.572828
-3315.000000	1.547967
-3289.500000	1.545178
-3264.000000	1.529388
-3238.500000	1.545536
-3213.000000	1.532436
-3187.500000	1.519639
-3162.000000	1.513710
-3136.500000	1.514476
-3111.000000	1.497069
-3085.500000	1.493437
-3060.000000	1.498252
-3034.500000	1.487896
-3009.000000	1.485520
-2983.500000	1.499948
-2958.000000	1.494609
-2932.500000	1.501611
-2907.000000	1.494031
-2881.500000	1.507394
-2856.000000	1.508008
-2830.500000	1.528766
-2805.000000	1.530045
-2779.500000	1.538020
-2754.000000	1.541817
-2728.500000	1.547416
-2703.000000	1.549937
-2677.500000	1.559833
-2652.000000	1.555570
-2626.500000	1.574988
-2601.000000	1.568544
-2575.500000	1.569798
-2550.000000	1.569865
-2524.500000	1.572066
-2499.000000	1.560852
-2473.500000	1.572296
-2448.000000	1.568852
-2422.500000	1.572908
-2397.000000	1.569521
-2371.500000	1.572514
-2346.000000	1.563473
-2320.500000	1.565621
-2295.000000	1.554910
-2269.500000	1.557290
-2244.000000	1.534693
-2218.500000	1.530406
-2193.000000	1.533455
-2167.500000	1.520313
-2142.000000	1.496279
-2116.500000	1.505067
-2091.000000	1.495645
-2065.500000	1.480867
-2040.000000	1.486997
-2014.500000	1.488741
-1989.000000	1.479866
-1963.500000	1.464918
-1938.000000	1.484071
-1912.500000	1.498708
-1887.000000	1.508023
-1861.500000	1.511271
-1836.000000	1.507560
-1810.500000	1.526627
-1785.000000	1.523070
-1759.500000	1.531151
-1734.000000	1.547962
-1708.500000	1.550269
-1683.000000	1.548878
-1657.500000	1.561771
-1632.000000	1.565841
-1606.500000	1.567572
-1581.000000	1.567844
-1555.500000	1.570042
-1530.000000	1.584509
-1504.500000	1.563783
-1479.000000	1.566590
-1453.500000	1.558373
-1428.000000	1.572568
-1402.500000	1.570761
-1377.000000	1.573061
-1351.500000	1.576078
-1326.000000	1.564404
-1300.500000	1.550454
-1275.000000	1.537572
-1249.500000	1.538984
-1224.000000	1.519810
-1198.500000	1.528498
-1173.000000	1.513736
-1147.500000	1.516461
-1122.000000	1.501993
-1096.500000	1.502028
-1071.000000	1.495835
-1045.500000	1.495859
-1020.000000	1.498600
-994.500000	1.492259
-969.000000	1.502625
-943.500000	1.499560
-918.000000	1.503399
-892.500000	1.500302
-867.000000	1.517119
-841.500000	1.508226
-816.000000	1.508067
-790.500000	1.526312
-765.000000	1.520702
-739.500000	1.550484
-714.000000	1.554745
-688.500000	1.567634
-663.000000	1.566972
-637.500000	1.558423
-612.000000	1.564725
-586.500000	1.562966
-561.000000	1.566243
-535.500000	1.569226
-510.000000	1.569568
-484.500000	1.559550
-459.000000	1.568332
-433.500000	1.571145
-408.000000	1.568766
-382.500000	1.563648
-357.000000	1.556262
-331.500000	1.555232
-306.000000	1.554504
-280.500000	1.552538
-255.000000	1.544514
-229.500000	1.523668
-204.000000	1.529495
-178.500000	1.529795
-153.000000	1.505817
-127.500000	1.506414
-102.000000	1.507447
-76.500000	1.504176
-51.000000	1.485629
-25.500000	1.487981
0.000000	1.485602
25.500000	1.493480
51.000000	1.495628
76.500000	1.494706
102.000000	1.496996
127.500000	1.496502
153.000000	1.499169
178.500000	1.507274
204.000000	1.535338
229.500000	1.536700
255.000000	1.526126
280.500000	1.550864
306.000000	1.544488
331.500000	1.559466
357.000000	1.564353
382.500000	1.574967
408.000000	1.560030
433.500000	1.574470
459.000000	1.569452
484.500000	1.569523
510.000000	1.567064
535.500000	1.565711
561.000000	1.574019
586.500000	1.558437
612.000000	1.573416
637.500000	1.566184
663.000000	1.561619
688.500000	1.552683
714.000000	1.551528
739.500000	1.537877
765.000000	1.533209
790.500000	1.522696
816.000000	1.528419
841.500000	1.510942
867.000000	1.512115
892.500000	1.506882
918.000000	1.496731
943.500000	1.499565
969.000000	1.482021
994.500000	1.497394
1020.000000	1.491355
1045.500000	1.492678
1071.000000	1.503531
1096.500000	1.502476
1122.000000	1.509282
1147.500000	1.508956
1173.000000	1.512836
1198.500000	1.518291
1224.000000	1.530108
1249.500000	1.552471
1275.000000	1.544595
1300.500000	1.550095
1326.000000	1.548794
1351.500000	1.567214
1377.000000	1.563677
1402.500000	1.567087
1428.000000	1.566435
1453.500000	1.569437
1479.000000	1.574360
1504.500000	1.573493
1530.000000	1.571233
1555.500000	1.559734
1581.000000	1.567195
1606.500000	1.561318
1632.000000	1.571150
1657.500000	1.550894
1683.000000	1.559757
1708.500000	1.550549
1734.000000	1.550816
1759.500000	1.536099
1785.000000	1.535484
1810.500000	1.506904
1836.000000	1.514388
1861.500000	1.516441
1887.000000	1.503749
1912.500000	1.504559
1938.000000	1.503181
1963.500000	1.498009
1989.000000	1.490083
2014.500000	1.483134
2040.000000	1.484274
2065.500000	1.502485
2091.000000	1.503743
2116.500000	1.513976
2142.000000	1.508846
2167.500000	1.531156
2193.000000	1.530961
2218.500000	1.539133
2244.000000	1.544666
2269.500000	1.547992
2295.000000	1.553298
2320.500000	1.552764
2346.000000	1.564201
2371.500000	1.572775
2397.000000	1.577701
2422.500000	1.561176
2448.000000	1.571707
2473.500000	1.564618
2499.000000	1.582327
2524.500000	1.566599
2550.000000	1.567349
2575.500000	1.574510
2601.000000	1.565321
2626.500000	1.557506
2652.000000	1.555513
2677.500000	1.550907
2703.000000	1.547770
2728.500000	1.550837
2754.000000	1.540693
2779.500000	1.521879
2805.000000	1.517794
2830.500000	1.515554
2856.000000	1.512468
2881.500000	1.506551
2907.000000	1.508178
2932.500000	1.499893
2958.000000	1.488382
2983.500000	1.477971
3009.000000	1.480575
3034.500000	1.494568
3060.000000	1.496334
3085.500000	1.489861
3111.000000	1.507138
3136.500000	1.510747
3162.000000	1.509771
3187.500000	1.511828
3213.000000	1.509140
3238.500000	1.543389
3264.000000	1.544425
3289.500000	1.554842
3315.000000	1.554581
3340.500000	1.562986
3366.000000	1.568743
3391.500000	1.563931
3417.000000	1.567433
3442.500000	1.566540
3468.000000	1.569968
3493.500000	1.565997
3519.000000	1.583297
3544.500000	1.580116
3570.000000	1.567288
3595.500000	1.572138
3621.000000	1.566523
3646.500000	1.555697
3672.000000	1.567168
3697.500000	1.550332
3723.000000	1.558272
3748.500000	1.539830
3774.000000	1.534061
3799.500000	1.537560
3825.000000	1.535166
3850.500000	1.518243
3876.000000	1.539715
3901.500000	1.535429
3927.000000	1.536828
3952.500000	1.543519
3978.000000	1.573720
4003.500000	1.586660
4029.000000	1.636814
4054.500000	1.679348
4080.000000	1.775315
4105.500000	1.882072
4131.000000	2.000961
4156.500000	2.187013
4182.000000	2.394690
4207.500000	2.684179
4233.000000	2.939229
4258.500000	3.206027
4284.000000	3.349448
4309.500000	3.490987
4335.000000	3.518078
4360.500000	3.548415
4386.000000	3.604839
4411.500000	3.599734
4437.000000	3.624069
4462.500000	3.620045
4488.000000	3.595093
4513.500000	3.551465
4539.000000	3.580514
4564.500000	3.595092
4590.000000	3.605056
4615.500000	3.601748
4641.000000	3.620044
4666.500000	3.574803
4692.000000	3.629700
4717.500000	3.624715
4743.000000	3.602393
4768.500000	3.575166
4794.000000	3.615640
4819.500000	3.582002
4845.000000	3.630774
4870.500000	3.578654
4896.000000	3.622504
4921.500000	3.634947
4947.000000	3.574891
4972.500000	3.612103
4998.000000	3.590614
5023.500000	3.605186
5049.000000	3.565877
5074.500000	3.614738
5100.000000	3.574528
5125.500000	3.603875
5151.000000	3.604127
5176.500000	3.572000
5202.000000	3.582970
5227.500000	3.582436
5253.000000	3.612165
5278.500000	3.576530
5304.000000	3.571228
5329.500000	3.589854
5355.000000	3.616425
5380.500000	3.576571
5406.000000	3.603641
5431.500000	3.609726
5457.000000	3.615767
5482.500000	3.594103
5508.000000	3.611324
5533.500000	3.579971
5559.000000	3.584086
5584.500000	3.623702
5610.000000	3.637869
5635.500000	3.617736
5661.000000	3.595617
5686.500000	3.588947
5712.000000	3.611483
5737.500000	3.601687
5763.000000	3.600475
5788.500000	3.634171
5814.000000	3.582626
5839.500000	3.617193
5865.000000	3.556717
5890.500000	3.608276
5916.000000	3.608890
5941.500000	3.598621
5967.000000	3.546654
5992.500000	3.638640
6018.000000	3.587499
6043.500000	3.591849
6069.000000	3.630297
6094.500000	3.624064
6120.000000	3.620567
6145.500000	3.596266
6171.000000	3.591534
6196.500000	3.591260
6222.000000	3.628971
6247.500000	3.588254
6273.000000	3.568975
6298.500000	3.609735
6324.000000	3.596299
6349.500000	3.575328
6375.000000	3.602201
6400.500000	3.618590
6426.000000	3.627442
6451.500000	3.592139
6477.000000	3.559686
6502.500000	3.617099
6528.000000	3.593728
6553.500000	3.614394
6579.000000	3.580862
6604.500000	3.589805
6630.000000	3.562666
6655.500000	3.596463
6681.000000	3.585684
6706.500000	3.602255
6732.000000	3.620682
6757.500000	3.597274
6783.000000	3.603180
6808.500000	3.590813
6834.000000	3.594848
6859.500000	3.589538
6885.000000	3.628753
6910.500000	3.590988
6936.000000	3.611698
6961.500000	3.608654
6987.000000	3.566072
7012.500000	3.594368
7038.000000	3.615834
7063.500000	3.614909
7089.000000	3.607236
7114.500000	3.591872
7140.000000	3.590684
7165.500000	3.608554
7191.000000	3.616740
7216.500000	3.627082
7242.000000	3.573485
7267.500000	3.620632
7293.000000	3.624978
7318.500000	3.591399
7344.000000	3.657822
7369.500000	3.591167
7395.000000	3.582459
7420.500000	3.611712
7446.000000	3.592580
7471.500000	3.627114
7497.000000	3.630102
7522.500000	3.586822
7548.000000	3.586141
7573.500000	3.603381
7599.000000	3.593938
7624.500000	3.619335
7650.000000	3.591931
7675.500000	3.613769
7701.000000	3.598714
7726.500000	3.568764
7752.000000	3.611968
7777.500000	3.599548
7803.000000	3.588683
7828.500000	3.593173
7854.000000	3.609500
7879.500000	3.587257
7905.000000	3.585595
7930.500000	3.611573
7956.000000	3.604915
7981.500000	3.566204
8007.000000	3.612588
8032.500000	3.603303
8058.000000	3.606938
8083.500000	3.612469
8109.000000	3.573243
8134.500000	3.607578
8160.000000	3.565905
8185.500000	3.573131
8211.000000	3.615697
8236.500000	3.531868
8262.000000	3.640637
8287.500000	3.558769
8313.000000	3.621611
8338.500000	3.576266
8364.000000	3.630161
8389.500000	3.587539
8415.000000	3.637009
8440.500000	3.638067
8466.000000	3.603169
8491.500000	3.618770
8517.000000	3.635091
8542.500000	3.590419
8568.000000	3.625893
8593.500000	3.615636
8619.000000	3.577305
8644.500000	3.624762
8670.000000	3.590306
8695.500000	3.638342
8721.000000	3.583974
8746.500000	3.575837
8772.000000	3.597881
8797.500000	3.610937
8823.000000	3.555342
8848.500000	3.585320
8874.000000	3.592424
8899.500000	3.582685
8925.000000	3.602405
8950.500000	3.588870
8976.000000	3.551601
9001.500000	3.596844
9027.000000	3.622410
9052.500000	3.581593
9078.000000	3.599703
9103.500000	3.603454
9129.000000	3.604844
9154.500000	3.598820
9180.000000	3.607405
9205.500000	3.619740
9231.000000	3.600865
9256.500000	3.595289
9282.000000	3.592824
9307.500000	3.595459
9333.000000	3.586233
9358.500000	3.584638
9384.000000	3.596331
9409.500000	3.614258
9435.000000	3.612699
9460.500000	3.564049
9486.000000	3.594687
9511.500000	3.561355
9537.000000	3.620893
9562.500000	3.589318
9588.000000	3.580593
9613.500000	3.580173
9639.000000	3.630497
9664.500000	3.595051
9690.000000	3.600421
9715.500000	3.605621
9741.000000	3.584609
9766.500000	3.591267
9792.000000	3.587028
9817.500000	3.595452
9843.000000	3.624111
9868.500000	3.620981
9894.000000	3.629545
9919.500000	3.599865
9945.000000	3.628762
9970.500000	3.605424
9996.000000	3.623874
10021.500000	3.600874
10047.000000	3.609910
10072.500000	3.602772
10098.000000	3.597229
10123.500000	3.618443
10149.000000	3.570304
10174.500000	3.573558
10200.000000	3.597836
10225.500000	3.553865
10251.000000	3.573655
10276.500000	3.596316
10302.000000	3.628663
10327.500000	3.610465
10353.000000	3.561687
10378.500000	3.606763
10404.000000	3.564072
10429.500000	3.609730
10455.000000	3.615756
10480.500000	3.562581
10506.000000	3.591595
10531.500000	3.631621
10557.000000	3.577034
10582.500000	3.618120
10608.000000	3.598873
10633.500000	3.587957
10659.000000	3.603978
10684.500000	3.602184
10710.000000	3.597244
10735.500000	3.612978
10761.000000	3.597961
10786.500000	3.608668
10812.000000	3.604633
10837.500000	3.601003
10863.000000	3.633598
10888.500000	3.607722
10914.000000	3.610976
10939.500000	3.587753
10965.000000	3.599060
10990.500000	3.576403
11016.000000	3.627439
11041.500000	3.618124
11067.000000	3.647367
11092.500000	3.597220
11118.000000	3.599131
11143.500000	3.634286
11169.000000	3.609287
11194.500000	3.587986
11220.000000	3.568327
11245.500000	3.633562
11271.000000	3.572754
11296.500000	3.609723
11322.000000	3.606411
11347.500000	3.605367
11373.000000	3.559650
11398.500000	3.650802
11424.000000	3.632897
11449.500000	3.577957
11475.000000	3.588584
11500.500000	3.609092
11526.000000	3.624383
11551.500000	3.594168
11577.000000	3.599373
11602.500000	3.600201
11628.000000	3.635366
11653.500000	3.630118
11679.000000	3.606173
11704.500000	3.592476
11730.000000	3.595864
11755.500000	3.579092
11781.000000	3.569107
11806.500000	3.588928
11832.000000	3.545075
11857.500000	3.603979
11883.000000	3.598724
11908.500000	3.589585
11934.000000	3.571536
11959.500000	3.597605
11985.000000	3.610524
12010.500000	3.611991
12036.000000	3.571301
12061.500000	3.634734
12087.000000	3.574036
12112.500000	3.644249
12138.000000	3.568727
12163.500000	3.579836
12189.000000	3.544150
12214.500000	3.604643
12240.000000	3.607228
12265.500000	3.594683
12291.000000	3.597464
12316.500000	3.584138
12342.000000	3.586269
12367.500000	3.552115
12393.000000	3.607701
12418.500000	3.589507
12444.000000	3.619310
12469.500000	3.599067
12495.000000	3.604303
12520.500000	3.608657
12546.000000	3.587999
12571.500000	3.612531
12597.000000	3.575910
12622.500000	3.619066
12648.000000	3.617061
12673.500000	3.623103
12699.000000	3.581745
12724.500000	3.577482
12750.000000	3.579122
